Fr√©quence (Hz)	Niveau (dB)
46,875000	-48,131443
93,750000	-37,107883
140,625000	-32,113083
187,500000	-30,309736
234,375000	-33,815907
281,250000	-32,149422
328,125000	-32,178295
375,000000	-33,600426
421,875000	-35,862129
468,750000	-36,138950
515,625000	-37,528355
562,500000	-35,955547
609,375000	-32,894585
656,250000	-33,750050
703,125000	-34,486252
750,000000	-33,350491
796,875000	-35,870430
843,750000	-38,267578
890,625000	-38,213551
937,500000	-37,228031
984,375000	-36,260662
1031,250000	-35,765430
1078,125000	-36,629341
1125,000000	-38,577488
1171,875000	-40,649788
1218,750000	-41,749290
1265,625000	-42,475594
1312,500000	-42,299736
1359,375000	-39,532028
1406,250000	-41,639347
1453,125000	-41,948536
1500,000000	-42,279530
1546,875000	-43,369282
1593,750000	-43,868164
1640,625000	-43,372337
1687,500000	-41,787384
1734,375000	-43,052856
1781,250000	-44,018227
1828,125000	-43,796532
1875,000000	-45,218227
1921,875000	-45,951653
1968,750000	-44,149311
2015,625000	-42,672146
2062,500000	-42,519489
2109,375000	-43,994389
2156,250000	-43,479568
2203,125000	-43,406265
2250,000000	-43,269958
2296,875000	-43,935074
2343,750000	-43,379807
2390,625000	-41,276699
2437,500000	-43,422127
2484,375000	-42,630783
2531,250000	-42,884377
2578,125000	-40,994053
2625,000000	-40,829716
2671,875000	-43,220924
2718,750000	-42,356110
2765,625000	-43,192875
2812,500000	-45,236015
2859,375000	-46,657146
2906,250000	-45,345959
2953,125000	-45,269020
3000,000000	-44,176487
3046,875000	-45,238400
3093,750000	-46,003426
3140,625000	-46,553692
3187,500000	-46,577366
3234,375000	-46,507259
3281,250000	-45,721909
3328,125000	-46,734325
3375,000000	-46,091431
3421,875000	-46,501778
3468,750000	-48,636871
3515,625000	-47,824932
3562,500000	-45,356907
3609,375000	-45,944340
3656,250000	-45,671749
3703,125000	-45,195602
3750,000000	-45,433323
3796,875000	-43,121262
3843,750000	-40,341080
3890,625000	-46,182251
3937,500000	-47,929245
3984,375000	-41,941200
4031,250000	-43,991222
4078,125000	-48,802738
4125,000000	-50,232193
4171,875000	-50,073940
4218,750000	-49,810955
4265,625000	-51,709751
4312,500000	-50,237957
4359,375000	-50,598995
4406,250000	-51,244465
4453,125000	-51,940903
4500,000000	-52,446224
4546,875000	-51,798038
4593,750000	-51,194988
4640,625000	-51,534744
4687,500000	-52,744171
4734,375000	-52,189568
4781,250000	-49,315872
4828,125000	-50,578457
4875,000000	-52,652420
4921,875000	-50,941689
4968,750000	-50,602707
5015,625000	-52,319408
5062,500000	-50,240833
5109,375000	-47,426548
5156,250000	-49,987854
5203,125000	-53,972904
5250,000000	-54,717991
5296,875000	-54,172455
5343,750000	-54,427517
5390,625000	-53,985050
5437,500000	-52,229736
5484,375000	-52,389198
5531,250000	-52,970730
5578,125000	-52,537308
5625,000000	-51,961460
5671,875000	-51,250797
5718,750000	-49,555882
5765,625000	-50,119072
5812,500000	-52,386147
5859,375000	-52,707909
5906,250000	-51,984379
5953,125000	-51,803383
6000,000000	-50,203682
6046,875000	-52,167618
6093,750000	-52,714386
6140,625000	-54,424694
6187,500000	-55,202911
6234,375000	-55,684086
6281,250000	-55,210243
6328,125000	-54,739906
6375,000000	-54,830513
6421,875000	-54,745247
6468,750000	-56,257931
6515,625000	-54,857857
6562,500000	-54,533119
6609,375000	-54,832993
6656,250000	-54,406536
6703,125000	-54,594414
6750,000000	-54,881973
6796,875000	-55,333298
6843,750000	-55,473419
6890,625000	-54,983639
6937,500000	-54,264671
6984,375000	-53,633362
7031,250000	-53,431725
7078,125000	-51,095032
7125,000000	-47,190269
7171,875000	-51,068100
7218,750000	-52,905830
7265,625000	-52,971718
7312,500000	-55,690418
7359,375000	-56,055702
7406,250000	-55,940193
7453,125000	-56,389915
7500,000000	-56,312328
7546,875000	-50,294727
7593,750000	-49,018700
7640,625000	-49,990200
7687,500000	-47,513184
7734,375000	-53,463730
7781,250000	-56,785305
7828,125000	-56,023838
7875,000000	-52,057652
7921,875000	-53,623531
7968,750000	-54,561657
8015,625000	-54,319889
8062,500000	-57,252781
8109,375000	-58,050735
8156,250000	-57,971668
8203,125000	-58,262043
8250,000000	-58,326092
8296,875000	-56,158661
8343,750000	-56,318165
8390,625000	-58,604702
8437,500000	-57,956837
8484,375000	-57,580986
8531,250000	-58,283539
8578,125000	-59,042511
8625,000000	-59,391136
8671,875000	-59,212650
8718,750000	-59,110222
8765,625000	-58,636787
8812,500000	-57,208572
8859,375000	-57,505413
8906,250000	-58,113426
8953,125000	-57,225712
9000,000000	-57,239063
9046,875000	-58,794254
9093,750000	-58,780640
9140,625000	-58,863884
9187,500000	-59,041378
9234,375000	-58,074757
9281,250000	-57,758446
9328,125000	-58,430145
9375,000000	-58,828461
9421,875000	-59,321980
9468,750000	-59,590828
9515,625000	-60,435795
9562,500000	-60,686970
9609,375000	-60,183254
9656,250000	-60,920807
9703,125000	-60,581348
9750,000000	-60,740810
9796,875000	-59,740860
9843,750000	-59,679741
9890,625000	-59,669975
9937,500000	-61,391972
9984,375000	-62,558292
10031,250000	-62,895832
10078,125000	-63,299072
10125,000000	-64,000717
10171,875000	-64,318291
10218,750000	-64,189697
10265,625000	-63,518555
10312,500000	-63,328548
10359,375000	-63,738964
10406,250000	-63,576164
10453,125000	-63,084618
10500,000000	-62,750351
10546,875000	-63,184971
10593,750000	-63,057392
10640,625000	-63,070576
10687,500000	-61,804096
10734,375000	-62,510136
10781,250000	-63,783710
10828,125000	-63,285629
10875,000000	-62,502659
10921,875000	-62,899166
10968,750000	-63,294456
11015,625000	-61,836624
11062,500000	-60,541447
11109,375000	-61,986198
11156,250000	-62,495163
11203,125000	-60,269184
11250,000000	-62,355453
11296,875000	-63,657963
11343,750000	-62,818752
11390,625000	-62,701668
11437,500000	-62,635792
11484,375000	-59,445805
11531,250000	-57,431843
11578,125000	-62,719463
11625,000000	-62,598850
11671,875000	-62,045074
11718,750000	-62,097794
11765,625000	-62,207291
11812,500000	-60,249695
11859,375000	-60,256184
11906,250000	-62,590157
11953,125000	-61,573505
12000,000000	-57,480171
12046,875000	-60,147469
12093,750000	-61,673603
12140,625000	-63,309441
12187,500000	-63,566193
12234,375000	-62,512386
12281,250000	-61,695812
12328,125000	-60,982677
12375,000000	-62,021103
12421,875000	-62,661030
12468,750000	-62,447750
12515,625000	-62,894005
12562,500000	-63,842220
12609,375000	-64,092865
12656,250000	-64,257812
12703,125000	-64,990707
12750,000000	-65,443924
12796,875000	-65,116417
12843,750000	-64,604477
12890,625000	-64,762573
12937,500000	-64,936043
12984,375000	-64,535271
13031,250000	-64,252365
13078,125000	-64,203300
13125,000000	-64,623291
13171,875000	-64,129257
13218,750000	-63,428200
13265,625000	-62,776245
13312,500000	-62,655212
13359,375000	-63,867924
13406,250000	-64,545990
13453,125000	-64,102730
13500,000000	-64,270828
13546,875000	-64,687004
13593,750000	-64,379829
13640,625000	-63,751423
13687,500000	-64,197037
13734,375000	-64,378014
13781,250000	-64,512260
13828,125000	-65,273804
13875,000000	-65,059647
13921,875000	-64,919914
13968,750000	-65,108673
14015,625000	-64,038200
14062,500000	-63,956882
14109,375000	-63,584179
14156,250000	-63,026669
14203,125000	-62,574818
14250,000000	-62,172581
14296,875000	-62,708347
14343,750000	-63,663910
14390,625000	-64,330681
14437,500000	-62,850208
14484,375000	-62,502247
14531,250000	-62,594337
14578,125000	-62,206898
14625,000000	-62,448677
14671,875000	-62,366943
14718,750000	-62,596458
14765,625000	-63,217339
14812,500000	-64,125725
14859,375000	-64,236839
14906,250000	-65,288368
14953,125000	-66,210609
15000,000000	-65,098465
15046,875000	-63,689354
15093,750000	-62,697346
15140,625000	-63,021362
15187,500000	-65,279251
15234,375000	-65,880386
15281,250000	-65,219170
15328,125000	-64,363937
15375,000000	-63,720860
15421,875000	-63,728004
15468,750000	-63,343681
15515,625000	-65,290489
15562,500000	-63,584209
15609,375000	-56,430832
15656,250000	-57,318592
15703,125000	-61,245193
15750,000000	-62,970673
15796,875000	-63,184361
15843,750000	-63,059834
15890,625000	-62,790379
15937,500000	-62,609985
15984,375000	-62,949535
16031,250000	-63,631874
16078,125000	-64,181770
16125,000000	-63,780125
16171,875000	-64,238541
16218,750000	-64,797890
16265,625000	-65,425240
16312,500000	-66,290741
16359,375000	-67,064857
16406,250000	-66,633972
16453,125000	-66,027023
16500,000000	-65,852760
16546,875000	-65,763618
16593,750000	-65,701904
16640,625000	-65,949326
16687,500000	-66,877235
16734,375000	-67,055626
16781,250000	-66,452103
16828,125000	-66,567291
16875,000000	-66,417000
16921,875000	-66,653992
16968,750000	-66,489571
17015,625000	-65,819077
17062,500000	-64,257286
17109,375000	-63,597061
17156,250000	-63,458847
17203,125000	-64,128983
17250,000000	-64,420296
17296,875000	-64,146683
17343,750000	-64,828987
17390,625000	-65,906792
17437,500000	-66,266518
17484,375000	-66,034714
17531,250000	-65,609779
17578,125000	-65,515289
17625,000000	-65,475372
17671,875000	-65,747978
17718,750000	-68,115128
17765,625000	-70,397873
17812,500000	-71,801414
17859,375000	-71,245071
17906,250000	-70,639206
17953,125000	-68,588669
18000,000000	-63,915249
18046,875000	-67,130943
18093,750000	-70,602135
18140,625000	-70,533585
18187,500000	-69,636864
18234,375000	-68,258347
18281,250000	-67,891190
18328,125000	-68,149406
18375,000000	-69,492462
18421,875000	-70,606705
18468,750000	-70,421455
18515,625000	-69,712791
18562,500000	-68,899422
18609,375000	-68,799751
18656,250000	-70,309296
18703,125000	-71,620575
18750,000000	-73,396271
18796,875000	-72,500748
18843,750000	-69,687836
18890,625000	-67,175980
18937,500000	-69,778938
18984,375000	-74,395576
19031,250000	-74,850296
19078,125000	-73,970825
19125,000000	-72,205086
19171,875000	-64,709106
19218,750000	-63,451370
19265,625000	-71,585655
19312,500000	-73,351997
19359,375000	-72,847084
19406,250000	-72,901337
19453,125000	-72,851654
19500,000000	-65,445244
19546,875000	-66,560272
19593,750000	-74,152542
19640,625000	-74,760277
19687,500000	-75,386787
19734,375000	-75,050957
19781,250000	-74,763512
19828,125000	-74,276405
19875,000000	-74,040619
19921,875000	-73,621765
19968,750000	-73,459877
20015,625000	-73,525528
20062,500000	-72,489059
20109,375000	-71,584808
20156,250000	-71,063438
20203,125000	-71,313957
20250,000000	-71,201553
20296,875000	-70,743614
20343,750000	-71,754471
20390,625000	-72,926735
20437,500000	-73,787209
20484,375000	-72,568008
20531,250000	-72,005989
20578,125000	-71,819611
20625,000000	-72,702698
20671,875000	-74,466888
20718,750000	-73,351463
20765,625000	-69,754059
20812,500000	-69,461220
20859,375000	-71,178383
20906,250000	-69,764999
20953,125000	-68,216721
21000,000000	-68,822678
21046,875000	-67,515411
21093,750000	-68,878807
21140,625000	-71,409416
21187,500000	-73,834740
21234,375000	-72,943375
21281,250000	-72,932793
21328,125000	-74,153824
21375,000000	-72,419243
21421,875000	-70,501045
21468,750000	-73,397247
21515,625000	-75,181160
21562,500000	-75,051659
21609,375000	-74,642754
21656,250000	-74,205780
21703,125000	-74,357208
21750,000000	-73,795753
21796,875000	-74,067879
21843,750000	-73,486313
21890,625000	-72,207779
21937,500000	-73,563797
21984,375000	-75,731750
22031,250000	-76,110657
22078,125000	-76,302574
22125,000000	-77,042145
22171,875000	-77,804893
22218,750000	-77,875938
22265,625000	-78,284348
22312,500000	-77,249008
22359,375000	-73,596649
22406,250000	-72,585518
22453,125000	-78,204361
22500,000000	-79,986076
22546,875000	-77,143417
22593,750000	-76,768654
22640,625000	-72,933197
22687,500000	-67,199623
22734,375000	-66,104324
22781,250000	-74,620880
22828,125000	-74,111832
22875,000000	-69,137894
22921,875000	-72,373436
22968,750000	-76,966675
23015,625000	-67,256683
23062,500000	-66,618790
23109,375000	-70,861992
23156,250000	-72,421173
23203,125000	-75,313843
23250,000000	-78,239304
23296,875000	-76,867821
23343,750000	-70,057220
23390,625000	-69,378067
23437,500000	-77,430687
23484,375000	-80,721107
23531,250000	-79,971817
23578,125000	-77,219742
23625,000000	-75,407387
23671,875000	-79,412697
23718,750000	-82,117668
23765,625000	-83,079475
23812,500000	-81,110817
23859,375000	-78,799034
23906,250000	-79,154991
23953,125000	-77,251350
